
Current (mA), Voltage (mV)
0 0
3.0 -74.2
3.2 -79.66
3.2 -80.06
3.4 -85.72
3.0 -75.8
3.2 -80.06
3.2 -78.96
3.2 -79.26
9.0 1757.8
9.0 2017.8
10.2 2226.84
11.0 2416.2
11.0 2716.2
3.2 3117.44
11.8 3195.56
70.8 5873.36
58.2 4998.44
47.8 4266.76
39.8 3673.16
31.8 3179.56
33.0 3448.6
35.4 3486.68
38.2 3714.44
39.8 3773.16
41.8 4021.56
43.8 4069.96
46.2 4208.04
48.6 4346.12
50.2 4504.84
53.4 4622.28
55.4 4770.68
57.0 4929.4
59.8 5157.16
62.0 5200.4
64.0 5348.8
66.8 5476.56
68.4 5635.28
70.4 5783.68
73.2 5911.44
76.8 6018.56
66.8 6776.56
72.4 6732.08
73.2 6911.44
172.0 6862.4
118.0 5355.6
118.0 5555.6
122.0 5452.4
128.0 5497.6
128.0 5697.6
134.0 5742.8
136.0 5891.2
136.0 6091.2
140.0 6188.0
144.0 6384.8
146.0 6533.2
150.0 6630.0
152.0 6578.4
158.0 6623.6
160.0 6772.0
162.0 6920.4
164.0 7068.8
168.0 7165.6
172.0 7262.4
174.0 7410.8
176.0 7559.2
178.0 7707.6
180.0 7856.0
184.0 7952.8
186.0 8101.2
190.0 7998.0
192.0 8146.4
194.0 8294.8
198.0 8391.6
202.0 8488.4
204.0 8636.8
208.0 8733.6
210.0 8682.0
214.0 8778.8
218.0 8875.6
220.0 9024.0
224.0 9120.8
226.0 9269.2
230.0 9366.0
232.0 9314.4
234.0 9462.8
238.0 9559.6
242.0 9656.4
244.0 9804.8
248.0 9901.6
250.0 10050.0
252.0 10198.4
256.0 10295.2
258.0 10243.6
262.0 10340.4
258.0 10843.6
262.0 10940.4
266.0 10837.2
268.0 10985.6
272.0 11082.4
274.0 11230.8
274.0 11430.8
282.0 11424.4
284.0 11572.8
288.0 11669.6
292.0 11566.4
292.0 11766.4
296.0 11863.2
300.0 11960.0
