
Current (mA), Voltage (mV)
0 0
3.2 -78.96
3.2 -79.36
3.2 -79.16
3.2 -78.76
10.0 582.0
12.4 720.08
11.2 941.04
14.0 1068.8
16.4 1176.88
18.4 1335.28
21.4 1457.88
23.8 1575.96
27.0 1693.4
29.0 1821.8
31.4 1939.88
41.4 2231.88
38.2 2194.44
41.0 2282.2
43.8 2409.96
46.6 2497.72
49.8 2615.16
52.2 2713.24
55.4 2830.68
58.6 2948.12
61.2 3041.04
64.4 3158.48
67.2 3246.24
70.0 3384.0
72.8 3471.76
75.6 3559.52
78.4 3687.28
82.0 3794.4
84.4 3892.48
88.4 3949.28
90.8 4087.36
94.0 4164.8
96.4 4302.88
100.6 4354.52
103.0 4462.6
106.2 4580.04
109.4 4657.48
112.6 4734.92
115.0 4833.0
178.0 6507.6
124.0 5100.8
128.0 5197.6
128.0 5397.6
134.0 5342.8
136.0 5491.2
140.0 5588.0
142.0 5736.4
146.0 5833.2
150.0 5830.0
152.0 5978.4
154.0 6126.8
158.0 6223.6
160.0 6372.0
166.0 6317.2
168.0 6465.6
172.0 6462.4
174.0 6710.8
176.0 6759.2
182.0 6804.4
184.0 6952.8
188.0 6949.6
190.0 7098.0
194.0 7094.8
196.0 7243.2
200.0 7340.0
202.0 7488.4
206.0 7585.2
210.0 7582.0
212.0 7730.4
216.0 7727.2
218.0 7875.6
222.0 7972.4
226.0 8069.2
228.0 8117.6
232.0 8214.4
234.0 8362.8
240.0 8408.0
242.0 8456.4
244.0 8604.8
248.0 8701.6
250.0 8750.0
252.0 8898.4
256.0 8895.2
258.0 9043.6
262.0 9140.4
266.0 9237.2
268.0 9285.6
270.0 9534.0
274.0 9630.8
276.0 9779.2
280.0 9876.0
284.0 9972.8
286.0 9921.2
290.0 10018.0
292.0 10166.4
298.0 10211.6
300.0 10360.0
302.0 10508.4
304.0 10656.8
308.0 10553.6
310.0 10702.0
314.0 10798.8
316.0 10947.2
322.0 10992.4
