
Current (mA), Voltage (mV)
0 0
1.98e+41 -5.1084e+42
2.6 171.92
2.6 402.92
5.0 575.0
6.0 775.2
4.8 1026.16
6.2 1210.04
7.4 1389.08
9.0 1577.8
10.0 1752.0
12.4 1930.08
13.6 2099.12
15.6 2247.52
17.6 2395.92
19.2 2564.64
38.0 3839.6
32.0 2674.4
34.0 2822.8
36.0 2971.2
36.0 3171.2
40.0 3268.0
40.0 3468.0
44.0 3564.8
38.0 3959.6
40.0 4118.0
42.0 4266.4
46.0 4363.2
46.0 4563.2
48.0 4751.6
52.0 4808.4
54.0 4916.8
58.0 5013.6
60.0 5122.0
62.0 5270.4
64.0 5388.8
68.0 5525.6
72.0 5502.4
76.0 5719.2
82.0 5524.4
82.0 5724.4
86.0 5781.2
86.0 5981.2
88.0 6129.6
266.0 7737.2
148.0 5481.6
124.0 5300.8
124.0 5500.8
132.0 5394.4
136.0 5491.2
140.0 5588.0
144.0 5584.8
144.0 5884.8
148.0 5881.6
152.0 5978.4
156.0 6075.2
160.0 6072.0
164.0 6168.8
164.0 6268.8
168.0 6365.6
172.0 6462.4
176.0 6459.2
180.0 6656.0
180.0 6756.0
184.0 6752.8
188.0 6849.6
192.0 6846.4
196.0 6943.2
202.0 6988.4
206.0 6985.2
210.0 7082.0
210.0 7182.0
218.0 7375.6
218.0 7375.6
218.0 7675.6
222.0 7572.4
226.0 7669.2
230.0 7766.0
234.0 7862.8
234.0 8062.8
234.0 8162.8
242.0 8056.4
246.0 8153.2
250.0 8150.0
254.0 8246.8
258.0 8343.6
262.0 8240.4
266.0 8337.2
270.0 8434.0
274.0 8330.8
278.0 8427.6
278.0 8627.6
290.0 8318.0
294.0 8214.8
298.0 8411.6
298.0 8811.6
302.0 8708.4
306.0 8805.2
310.0 8902.0
314.0 8798.8
322.0 8792.4
330.0 8786.0
330.0 8986.0
330.0 9186.0
338.0 8979.6
338.0 9179.6
346.0 9173.2
346.0 9373.2
354.0 9166.8
