
Current (mA), Voltage (mV)
0 0
3.2 -57.26
3.2 166.44
2.6 435.92
5.4 612.68
1.98e+41 -5.1084e+42
7.0 1069.4
3.2 1407.44
9.0 1517.8
10.2 1726.84
10.2 1966.84
3.2 2407.44
4.4 2596.48
4.8 2826.16
5.6 3035.52
6.8 3224.56
28.0 2617.6
30.0 2726.0
30.0 2926.0
34.0 3022.8
36.0 3211.2
40.0 3308.0
42.0 3416.4
44.0 3604.8
38.0 3919.6
42.0 4026.4
44.0 4134.8
46.0 4243.2
48.0 4391.6
52.0 4528.4
54.0 4636.8
56.0 4785.2
60.0 4842.0
62.0 4990.4
66.0 5047.2
68.0 5195.6
70.0 5354.0
74.0 5410.8
76.0 5559.2
78.0 5707.6
80.0 5856.0
78.0 6087.6
82.0 6184.4
84.0 6332.8
250.0 8750.0
136.0 5591.2
120.0 5504.0
124.0 5600.8
128.0 5597.6
128.0 5897.6
132.0 5894.4
136.0 5991.2
140.0 5988.0
140.0 6188.0
144.0 6284.8
148.0 6381.6
148.0 6581.6
152.0 6578.4
156.0 6775.2
160.0 6772.0
160.0 6972.0
164.0 7068.8
160.0 7472.0
164.0 7568.8
168.0 7665.6
172.0 7662.4
176.0 7859.2
176.0 7959.2
176.0 8159.2
180.0 8256.0
184.0 8252.8
184.0 8552.8
188.0 8549.6
192.0 8646.4
196.0 8643.2
206.0 8385.2
214.0 8278.8
214.0 8578.8
214.0 8778.8
222.0 8672.4
226.0 8669.2
226.0 8769.2
230.0 8966.0
234.0 8962.8
238.0 9059.6
238.0 9259.6
242.0 9256.4
242.0 9556.4
246.0 9553.2
250.0 9650.0
254.0 9746.8
262.0 9740.4
262.0 9940.4
266.0 9837.2
266.0 10037.2
274.0 10030.8
278.0 10127.6
282.0 10024.4
278.0 10527.6
282.0 10624.4
286.0 10521.2
294.0 10514.8
298.0 10611.6
298.0 10811.6
306.0 10805.2
306.0 10805.2
310.0 10902.0
314.0 10998.8
322.0 10992.4
