
Current (mA), Voltage (mV)
0 0
3.0 -72.6
3.2 -77.76
3.2 -80.96
3.2 -69.26
3.2 -80.96
20.2 738.84
23.4 836.28
26.6 913.72
29.4 1051.48
33.0 1118.6
35.8 1226.36
39.0 1303.8
42.6 1390.92
78.0 2047.6
50.0 1520.0
54.0 1626.8
56.0 1735.2
60.0 1792.0
62.0 1900.4
68.0 1905.6
70.0 2054.0
74.0 2110.8
78.0 2167.6
82.0 2224.4
86.0 2281.2
88.0 2389.6
92.0 2446.4
94.0 2604.8
98.0 2661.6
102.0 2718.4
106.0 2775.2
110.0 2832.0
112.0 2940.4
116.0 2997.2
120.0 3054.0
124.0 3110.8
128.0 3167.6
132.0 3224.4
134.0 3332.8
138.0 3389.6
142.0 3456.4
214.0 4578.8
152.0 3678.4
156.0 3675.2
156.0 3875.2
160.0 3872.0
168.0 3865.6
168.0 4065.6
172.0 4062.4
176.0 4159.2
180.0 4156.0
184.0 4252.8
188.0 4349.6
192.0 4346.4
196.0 4443.2
202.0 4388.4
206.0 4485.2
210.0 4582.0
214.0 4578.8
218.0 4675.6
222.0 4772.4
226.0 4769.2
230.0 4866.0
230.0 4966.0
238.0 4959.6
238.0 5159.6
242.0 5156.4
246.0 5153.2
250.0 5250.0
254.0 5246.8
258.0 5343.6
262.0 5340.4
266.0 5437.2
270.0 5534.0
274.0 5530.8
278.0 5527.6
282.0 5624.4
286.0 5721.2
290.0 5818.0
290.0 5818.0
294.0 6014.8
298.0 6011.6
302.0 6008.4
306.0 6105.2
314.0 6098.8
318.0 6095.6
318.0 6295.6
322.0 6292.4
326.0 6289.2
330.0 6386.0
334.0 6382.8
338.0 6479.6
338.0 6679.6
346.0 6573.2
350.0 6570.0
354.0 6666.8
354.0 6766.8
362.0 6760.4
370.0 6554.0
362.0 7160.4
370.0 6954.0
378.0 6947.6
378.0 6947.6
386.0 6941.2
394.0 7134.8
386.0 7341.2
394.0 7134.8
394.0 7334.8
402.0 7328.4
402.0 7528.4
410.0 7722.0
410.0 7522.0
418.0 7715.6
426.0 7509.2
426.0 7709.2
426.0 7709.2
434.0 7902.8
434.0 8102.8
450.0 7890.0
450.0 7890.0
450.0 7890.0
450.0 8090.0
458.0 8083.6
466.0 7877.2
458.0 8283.6
474.0 8070.8
474.0 8270.8
482.0 8064.4
482.0 8264.4
490.0 8258.0
490.0 8458.0
490.0 8658.0
490.0 8658.0
498.0 8651.6
920.0 9064.0
720.0 2724.0
760.0 1892.0
760.0 1692.0
760.0 2092.0
760.0 2092.0
760.0 2492.0
720.0 3524.0
760.0 2692.0
760.0 2892.0
760.0 3092.0
760.0 3292.0
760.0 3092.0
760.0 3492.0
800.0 2660.0
800.0 2660.0
800.0 2660.0
800.0 3060.0
800.0 3060.0
800.0 3260.0
800.0 3460.0
800.0 3460.0
800.0 3860.0
840.0 2828.0
800.0 4060.0
840.0 3228.0
840.0 3428.0
840.0 3428.0
840.0 3428.0
840.0 3828.0
840.0 3828.0
840.0 4028.0
880.0 2996.0
880.0 3196.0
880.0 3396.0
880.0 3396.0
880.0 3796.0
880.0 3796.0
880.0 3996.0
880.0 4196.0
880.0 4396.0
880.0 4596.0
920.0 3564.0
880.0 4596.0
880.0 4996.0
920.0 3964.0
920.0 4364.0
960.0 3132.0
920.0 4364.0
920.0 4564.0
960.0 3932.0
960.0 3932.0
920.0 4964.0
920.0 5164.0
960.0 4532.0
960.0 4532.0
960.0 4532.0
960.0 4932.0
960.0 4932.0
960.0 5132.0
960.0 5432.0
960.0 5432.0
1000.0 4800.0
1000.0 4600.0
